wavelength / nm,EQE / %
200,0
300,0
320,0
340,5
360,20
380,60
400,85
420,92
440,96
460,97
480,98
500,99
600,99
700,100
800,99
900,96
950,92
1000,85
1050,70
1100,30
1200,5
1250,0
1300,0
1400,0
1600,0
1800,0
2000,0
